PE UV       SUBTECH     SPECTRUM    ASCII       PEDS        4.00        
   -1
a.Sample.asc
22/05/06
15:04:12.00
22/05/06
15:04:12.00
Administrator

200.000000
1
Lambda 1050
1050L1808311
PerkinElmer UV WinLab 6.4.0.973 / 2.02.11 Lambda 900 UV/VIS/NIR. May 23 2018 11:23:04

0
0
3350/servo 860.8/2
0
0
UV/VIS
1
1
1
CommonBeamDepol.RBeamAtt.SBeamAtt.60mm sphere
0
0
0
0
Program
Program
3350/servo 860.8/2
3350/0.2 860.8/0.2
3350/0.2 860.8/0.2
0
1.00
 
 
 
0
 
860.8
319.2
860.8
Front
100
on
S:100 R:100
 
0
0
0
 
0
 
 
 
0
 
 
0
0
0
0
0
 
 
 
 
0
0


0
0
#HDR
-1
-1
#GR
nm
%T
1.0
0.0
2000.000000
-1.000000
1801
8
426.948068
47.404186
#DATA
2000.000000	80.588600
1999.000000	80.556583
1998.000000	80.649932
1997.000000	80.551092
1996.000000	80.619883
1995.000000	80.546027
1994.000000	80.574352
1993.000000	80.545878
1992.000000	80.568944
1991.000000	80.507180
1990.000000	80.591178
1989.000000	80.503245
1988.000000	80.501658
1987.000000	80.425269
1986.000000	80.525683
1985.000000	80.445705
1984.000000	80.503396
1983.000000	80.453025
1982.000000	80.458993
1981.000000	80.402270
1980.000000	80.479241
1979.000000	80.411694
1978.000000	80.446558
1977.000000	80.393568
1976.000000	80.425623
1975.000000	80.414606
1974.000000	80.472235
1973.000000	80.372613
1972.000000	80.437122
1971.000000	80.400294
1970.000000	80.392855
1969.000000	80.385298
1968.000000	80.482319
1967.000000	80.422669
1966.000000	80.435902
1965.000000	80.441158
1964.000000	80.463489
1963.000000	80.413566
1962.000000	80.407846
1961.000000	80.368610
1960.000000	80.453425
1959.000000	80.409406
1958.000000	80.445473
1957.000000	80.372310
1956.000000	80.378399
1955.000000	80.342806
1954.000000	80.381635
1953.000000	80.357017
1952.000000	80.393550
1951.000000	80.340838
1950.000000	80.383116
1949.000000	80.353365
1948.000000	80.304432
1947.000000	80.349675
1946.000000	80.322087
1945.000000	80.299381
1944.000000	80.362490
1943.000000	80.295758
1942.000000	80.364906
1941.000000	80.305471
1940.000000	80.292492
1939.000000	80.267711
1938.000000	80.305838
1937.000000	80.272525
1936.000000	80.332239
1935.000000	80.274911
1934.000000	80.302922
1933.000000	80.224870
1932.000000	80.325064
1931.000000	80.281494
1930.000000	80.331505
1929.000000	80.278591
1928.000000	80.269498
1927.000000	80.249405
1926.000000	80.251198
1925.000000	80.241638
1924.000000	80.279696
1923.000000	80.168885
1922.000000	80.232755
1921.000000	80.175486
1920.000000	80.222159
1919.000000	80.137045
1918.000000	80.146181
1917.000000	80.164290
1916.000000	80.220395
1915.000000	80.162155
1914.000000	80.125186
1913.000000	80.102052
1912.000000	80.108918
1911.000000	80.068477
1910.000000	80.103469
1909.000000	80.025644
1908.000000	80.047363
1907.000000	80.015321
1906.000000	80.063995
1905.000000	79.974292
1904.000000	79.942382
1903.000000	79.878474
1902.000000	79.866720
1901.000000	79.860253
1900.000000	79.828340
1899.000000	79.804573
1898.000000	79.819307
1897.000000	79.754385
1896.000000	79.744935
1895.000000	79.746105
1894.000000	79.755473
1893.000000	79.703262
1892.000000	79.705192
1891.000000	79.628308
1890.000000	79.598490
1889.000000	79.562594
1888.000000	79.578075
1887.000000	79.561442
1886.000000	79.564210
1885.000000	79.530074
1884.000000	79.536580
1883.000000	79.541142
1882.000000	79.488640
1881.000000	79.469858
1880.000000	79.486340
1879.000000	79.452360
1878.000000	79.469595
1877.000000	79.457117
1876.000000	79.430645
1875.000000	79.398639
1874.000000	79.400030
1873.000000	79.406853
1872.000000	79.429239
1871.000000	79.391278
1870.000000	79.343822
1869.000000	79.339057
1868.000000	79.316502
1867.000000	79.285525
1866.000000	79.272510
1865.000000	79.253156
1864.000000	79.255812
1863.000000	79.257307
1862.000000	79.254760
1861.000000	79.261876
1860.000000	79.255795
1859.000000	79.250629
1858.000000	79.234667
1857.000000	79.208444
1856.000000	79.154037
1855.000000	79.141074
1854.000000	79.167519
1853.000000	79.188492
1852.000000	79.181554
1851.000000	79.178173
1850.000000	79.137951
1849.000000	79.151550
1848.000000	79.138280
1847.000000	79.144544
1846.000000	79.130182
1845.000000	79.132084
1844.000000	79.115254
1843.000000	79.069116
1842.000000	79.052987
1841.000000	79.061649
1840.000000	79.041238
1839.000000	79.042898
1838.000000	79.041626
1837.000000	79.054302
1836.000000	79.013988
1835.000000	78.981351
1834.000000	78.943926
1833.000000	78.932539
1832.000000	78.882433
1831.000000	78.878244
1830.000000	78.903290
1829.000000	78.894254
1828.000000	78.855313
1827.000000	78.853782
1826.000000	78.850926
1825.000000	78.837784
1824.000000	78.821647
1823.000000	78.809690
1822.000000	78.786019
1821.000000	78.772353
1820.000000	78.744355
1819.000000	78.753845
1818.000000	78.728332
1817.000000	78.748221
1816.000000	78.745149
1815.000000	78.746838
1814.000000	78.726519
1813.000000	78.716667
1812.000000	78.702050
1811.000000	78.693888
1810.000000	78.671888
1809.000000	78.665258
1808.000000	78.632199
1807.000000	78.646872
1806.000000	78.628755
1805.000000	78.605542
1804.000000	78.573216
1803.000000	78.592153
1802.000000	78.582531
1801.000000	78.585074
1800.000000	78.541106
1799.000000	78.570023
1798.000000	78.545898
1797.000000	78.523586
1796.000000	78.504392
1795.000000	78.512139
1794.000000	78.500699
1793.000000	78.534536
1792.000000	78.520377
1791.000000	78.513779
1790.000000	78.459407
1789.000000	78.462714
1788.000000	78.464594
1787.000000	78.436496
1786.000000	78.390403
1785.000000	78.415488
1784.000000	78.379863
1783.000000	78.386600
1782.000000	78.328387
1781.000000	78.372160
1780.000000	78.341024
1779.000000	78.357370
1778.000000	78.339645
1777.000000	78.334350
1776.000000	78.310461
1775.000000	78.307276
1774.000000	78.289412
1773.000000	78.303389
1772.000000	78.275449
1771.000000	78.301572
1770.000000	78.270395
1769.000000	78.293221
1768.000000	78.260348
1767.000000	78.276140
1766.000000	78.241054
1765.000000	78.267662
1764.000000	78.244550
1763.000000	78.251821
1762.000000	78.233331
1761.000000	78.238626
1760.000000	78.208310
1759.000000	78.242411
1758.000000	78.190355
1757.000000	78.240908
1756.000000	78.217293
1755.000000	78.223863
1754.000000	78.176492
1753.000000	78.197892
1752.000000	78.147766
1751.000000	78.150364
1750.000000	78.146689
1749.000000	78.164343
1748.000000	78.110098
1747.000000	78.142378
1746.000000	78.120655
1745.000000	78.138144
1744.000000	78.125734
1743.000000	78.123922
1742.000000	78.075319
1741.000000	78.142460
1740.000000	78.076808
1739.000000	78.082961
1738.000000	78.060936
1737.000000	78.095849
1736.000000	78.063556
1735.000000	78.044843
1734.000000	78.043683
1733.000000	78.046897
1732.000000	78.043118
1731.000000	78.045065
1730.000000	78.009786
1729.000000	78.024673
1728.000000	78.002041
1727.000000	78.006709
1726.000000	77.943671
1725.000000	78.062030
1724.000000	77.932711
1723.000000	77.982454
1722.000000	77.950511
1721.000000	77.981122
1720.000000	77.967301
1719.000000	77.950299
1718.000000	77.922165
1717.000000	77.933513
1716.000000	77.870321
1715.000000	77.889487
1714.000000	77.842157
1713.000000	77.902314
1712.000000	77.818757
1711.000000	77.827298
1710.000000	77.798074
1709.000000	77.796150
1708.000000	77.745210
1707.000000	77.750906
1706.000000	77.727788
1705.000000	77.716573
1704.000000	77.647460
1703.000000	77.649779
1702.000000	77.619737
1701.000000	77.622538
1700.000000	77.569501
1699.000000	77.543625
1698.000000	77.503085
1697.000000	77.509793
1696.000000	77.485912
1695.000000	77.500008
1694.000000	77.430393
1693.000000	77.403653
1692.000000	77.366755
1691.000000	77.398968
1690.000000	77.318688
1689.000000	77.319145
1688.000000	77.280626
1687.000000	77.311096
1686.000000	77.261001
1685.000000	77.291303
1684.000000	77.263899
1683.000000	77.240246
1682.000000	77.210792
1681.000000	77.235191
1680.000000	77.196768
1679.000000	77.215964
1678.000000	77.199462
1677.000000	77.192617
1676.000000	77.154668
1675.000000	77.157089
1674.000000	77.123843
1673.000000	77.156540
1672.000000	77.113580
1671.000000	77.144843
1670.000000	77.149090
1669.000000	77.176107
1668.000000	77.119372
1667.000000	77.157216
1666.000000	77.123358
1665.000000	77.149530
1664.000000	77.133722
1663.000000	77.158605
1662.000000	77.126267
1661.000000	77.140929
1660.000000	77.113539
1659.000000	77.135018
1658.000000	77.111697
1657.000000	77.089236
1656.000000	77.069405
1655.000000	77.106445
1654.000000	77.069286
1653.000000	77.083859
1652.000000	77.044236
1651.000000	77.061761
1650.000000	77.049725
1649.000000	77.054650
1648.000000	77.017307
1647.000000	76.993064
1646.000000	76.970594
1645.000000	76.979706
1644.000000	76.961501
1643.000000	76.961197
1642.000000	76.938036
1641.000000	76.942310
1640.000000	76.923026
1639.000000	76.933615
1638.000000	76.922025
1637.000000	76.904268
1636.000000	76.880838
1635.000000	76.890792
1634.000000	76.870530
1633.000000	76.861140
1632.000000	76.853568
1631.000000	76.860865
1630.000000	76.867134
1629.000000	76.842717
1628.000000	76.832274
1627.000000	76.819152
1626.000000	76.794176
1625.000000	76.793479
1624.000000	76.794316
1623.000000	76.779615
1622.000000	76.767388
1621.000000	76.766790
1620.000000	76.755840
1619.000000	76.758638
1618.000000	76.726935
1617.000000	76.731722
1616.000000	76.713168
1615.000000	76.714151
1614.000000	76.711360
1613.000000	76.700749
1612.000000	76.677160
1611.000000	76.684203
1610.000000	76.661550
1609.000000	76.645484
1608.000000	76.626610
1607.000000	76.644795
1606.000000	76.637120
1605.000000	76.619991
1604.000000	76.589834
1603.000000	76.579085
1602.000000	76.573140
1601.000000	76.550521
1600.000000	76.543729
1599.000000	76.538203
1598.000000	76.516264
1597.000000	76.514522
1596.000000	76.519398
1595.000000	76.514233
1594.000000	76.488654
1593.000000	76.489810
1592.000000	76.488618
1591.000000	76.477394
1590.000000	76.449581
1589.000000	76.426656
1588.000000	76.421239
1587.000000	76.422373
1586.000000	76.408617
1585.000000	76.393438
1584.000000	76.362425
1583.000000	76.359671
1582.000000	76.358925
1581.000000	76.348399
1580.000000	76.347159
1579.000000	76.326976
1578.000000	76.309543
1577.000000	76.313040
1576.000000	76.298955
1575.000000	76.282189
1574.000000	76.274116
1573.000000	76.275005
1572.000000	76.262477
1571.000000	76.245099
1570.000000	76.234838
1569.000000	76.222781
1568.000000	76.207580
1567.000000	76.202727
1566.000000	76.201652
1565.000000	76.189149
1564.000000	76.183702
1563.000000	76.163914
1562.000000	76.145565
1561.000000	76.134174
1560.000000	76.125859
1559.000000	76.091294
1558.000000	76.027680
1557.000000	75.901281
1556.000000	75.727405
1555.000000	75.639227
1554.000000	75.632616
1553.000000	75.608500
1552.000000	75.596586
1551.000000	75.584868
1550.000000	75.592591
1549.000000	75.574438
1548.000000	75.555620
1547.000000	75.438528
1546.000000	75.364615
1545.000000	75.339819
1544.000000	75.323024
1543.000000	75.318431
1542.000000	75.296857
1541.000000	75.277263
1540.000000	75.299466
1539.000000	75.286171
1538.000000	75.289184
1537.000000	75.287430
1536.000000	75.210737
1535.000000	75.235466
1534.000000	75.272586
1533.000000	75.253805
1532.000000	75.251551
1531.000000	75.231257
1530.000000	75.230312
1529.000000	75.225606
1528.000000	75.208718
1527.000000	75.180955
1526.000000	75.179951
1525.000000	75.030537
1524.000000	75.066713
1523.000000	75.082815
1522.000000	75.078158
1521.000000	75.054263
1520.000000	75.058384
1519.000000	75.039059
1518.000000	75.033505
1517.000000	75.020545
1516.000000	75.022780
1515.000000	74.989508
1514.000000	74.986823
1513.000000	74.971155
1512.000000	74.983925
1511.000000	74.959185
1510.000000	74.949758
1509.000000	74.941648
1508.000000	74.922564
1507.000000	74.911802
1506.000000	74.903555
1505.000000	74.872581
1504.000000	75.022582
1503.000000	74.911284
1502.000000	74.867520
1501.000000	74.834465
1500.000000	74.821776
1499.000000	74.944441
1498.000000	74.831812
1497.000000	74.765606
1496.000000	74.775114
1495.000000	74.738818
1494.000000	74.758509
1493.000000	74.728786
1492.000000	74.876441
1491.000000	74.741202
1490.000000	74.710976
1489.000000	74.729879
1488.000000	74.701000
1487.000000	74.670964
1486.000000	74.671601
1485.000000	74.641919
1484.000000	74.642709
1483.000000	74.622427
1482.000000	74.633874
1481.000000	74.606186
1480.000000	74.777209
1479.000000	74.776642
1478.000000	74.768000
1477.000000	74.749159
1476.000000	74.745534
1475.000000	74.720818
1474.000000	74.526925
1473.000000	74.463555
1472.000000	74.463996
1471.000000	74.445282
1470.000000	74.429644
1469.000000	74.397899
1468.000000	74.413431
1467.000000	74.398409
1466.000000	74.559811
1465.000000	74.537768
1464.000000	74.379469
1463.000000	74.339667
1462.000000	74.361208
1461.000000	74.337606
1460.000000	74.478837
1459.000000	74.470415
1458.000000	74.305278
1457.000000	74.271012
1456.000000	74.266195
1455.000000	74.240078
1454.000000	74.228650
1453.000000	74.362845
1452.000000	74.378587
1451.000000	74.347799
1450.000000	74.355377
1449.000000	74.134323
1448.000000	74.155877
1447.000000	74.114940
1446.000000	74.115579
1445.000000	74.093346
1444.000000	74.120955
1443.000000	74.076565
1442.000000	74.083458
1441.000000	74.004865
1440.000000	74.030715
1439.000000	74.011985
1438.000000	74.157411
1437.000000	74.130123
1436.000000	74.145235
1435.000000	74.098319
1434.000000	74.115630
1433.000000	74.066619
1432.000000	74.075234
1431.000000	74.036097
1430.000000	74.046556
1429.000000	74.002507
1428.000000	73.989299
1427.000000	73.949327
1426.000000	73.972070
1425.000000	73.922096
1424.000000	73.909994
1423.000000	73.885536
1422.000000	73.875177
1421.000000	73.741373
1420.000000	73.737804
1419.000000	73.545081
1418.000000	73.644465
1417.000000	73.635467
1416.000000	73.755595
1415.000000	73.687967
1414.000000	73.509509
1413.000000	73.521551
1412.000000	73.521886
1411.000000	73.489205
1410.000000	73.486702
1409.000000	73.446955
1408.000000	73.412767
1407.000000	73.531209
1406.000000	73.511841
1405.000000	73.498458
1404.000000	73.322751
1403.000000	73.285695
1402.000000	73.280590
1401.000000	73.223457
1400.000000	73.269549
1399.000000	73.221380
1398.000000	73.212869
1397.000000	73.166204
1396.000000	73.180147
1395.000000	73.274758
1394.000000	73.283128
1393.000000	73.248694
1392.000000	73.233643
1391.000000	73.182761
1390.000000	73.183322
1389.000000	73.143440
1388.000000	73.162724
1387.000000	73.108513
1386.000000	73.104045
1385.000000	73.092451
1384.000000	73.073593
1383.000000	73.068546
1382.000000	73.036624
1381.000000	72.883169
1380.000000	72.820378
1379.000000	72.666367
1378.000000	72.700700
1377.000000	72.776046
1376.000000	72.912942
1375.000000	72.832323
1374.000000	72.670383
1373.000000	72.639483
1372.000000	72.642746
1371.000000	72.586789
1370.000000	72.569958
1369.000000	72.533355
1368.000000	72.518192
1367.000000	72.479135
1366.000000	72.461947
1365.000000	72.426789
1364.000000	72.413839
1363.000000	72.425329
1362.000000	72.564342
1361.000000	72.465559
1360.000000	72.291620
1359.000000	72.261586
1358.000000	72.253634
1357.000000	72.196454
1356.000000	72.151709
1355.000000	72.137385
1354.000000	72.162789
1353.000000	72.286020
1352.000000	72.208695
1351.000000	72.063798
1350.000000	72.051660
1349.000000	72.053927
1348.000000	72.052220
1347.000000	72.026335
1346.000000	72.034816
1345.000000	72.074210
1344.000000	72.103826
1343.000000	71.991205
1342.000000	72.034681
1341.000000	72.091775
1340.000000	72.061241
1339.000000	71.960866
1338.000000	71.951149
1337.000000	71.941601
1336.000000	71.936151
1335.000000	71.949586
1334.000000	72.013053
1333.000000	71.981676
1332.000000	71.976913
1331.000000	71.951170
1330.000000	71.939764
1329.000000	71.931835
1328.000000	71.912338
1327.000000	71.886686
1326.000000	71.870583
1325.000000	71.845057
1324.000000	71.846376
1323.000000	71.823725
1322.000000	71.802215
1321.000000	71.762742
1320.000000	71.754410
1319.000000	71.715507
1318.000000	71.655001
1317.000000	71.624395
1316.000000	71.614298
1315.000000	71.591672
1314.000000	71.618296
1313.000000	71.646946
1312.000000	71.581827
1311.000000	71.503056
1310.000000	71.501853
1309.000000	71.486862
1308.000000	71.463506
1307.000000	71.429979
1306.000000	71.412247
1305.000000	71.398765
1304.000000	71.387412
1303.000000	71.365748
1302.000000	71.359884
1301.000000	71.338953
1300.000000	71.317979
1299.000000	71.294698
1298.000000	71.307351
1297.000000	71.286464
1296.000000	71.223106
1295.000000	71.266254
1294.000000	71.316314
1293.000000	71.297226
1292.000000	71.239977
1291.000000	71.176246
1290.000000	71.163626
1289.000000	71.206462
1288.000000	71.236558
1287.000000	71.147672
1286.000000	71.088795
1285.000000	71.087944
1284.000000	71.074407
1283.000000	71.070311
1282.000000	71.059728
1281.000000	71.107347
1280.000000	71.135081
1279.000000	71.111173
1278.000000	71.109994
1277.000000	71.115755
1276.000000	71.096311
1275.000000	71.078361
1274.000000	71.053220
1273.000000	71.045563
1272.000000	71.032052
1271.000000	71.012303
1270.000000	70.986194
1269.000000	70.937280
1268.000000	70.898583
1267.000000	70.883132
1266.000000	70.861086
1265.000000	70.855319
1264.000000	70.854270
1263.000000	70.846331
1262.000000	70.820505
1261.000000	70.789080
1260.000000	70.771339
1259.000000	70.773027
1258.000000	70.752912
1257.000000	70.746451
1256.000000	70.721319
1255.000000	70.715059
1254.000000	70.699175
1253.000000	70.678946
1252.000000	70.650227
1251.000000	70.656018
1250.000000	70.687399
1249.000000	70.649188
1248.000000	70.606184
1247.000000	70.594422
1246.000000	70.579043
1245.000000	70.571067
1244.000000	70.616701
1243.000000	70.663259
1242.000000	70.639134
1241.000000	70.623282
1240.000000	70.601312
1239.000000	70.609687
1238.000000	70.572747
1237.000000	70.574727
1236.000000	70.555153
1235.000000	70.555906
1234.000000	70.522838
1233.000000	70.522099
1232.000000	70.494830
1231.000000	70.432809
1230.000000	70.413006
1229.000000	70.401869
1228.000000	70.384156
1227.000000	70.388430
1226.000000	70.334331
1225.000000	70.329492
1224.000000	70.310295
1223.000000	70.308669
1222.000000	70.298437
1221.000000	70.305861
1220.000000	70.266038
1219.000000	70.267751
1218.000000	70.252981
1217.000000	70.252570
1216.000000	70.237158
1215.000000	70.251087
1214.000000	70.221024
1213.000000	70.222028
1212.000000	70.183018
1211.000000	70.237230
1210.000000	70.155518
1209.000000	70.132591
1208.000000	70.113566
1207.000000	70.205891
1206.000000	70.128287
1205.000000	70.127263
1204.000000	70.093170
1203.000000	70.182974
1202.000000	70.154908
1201.000000	70.065081
1200.000000	70.043479
1199.000000	70.076506
1198.000000	70.039657
1197.000000	70.047221
1196.000000	70.017457
1195.000000	70.009628
1194.000000	69.955749
1193.000000	69.960561
1192.000000	69.946705
1191.000000	69.940495
1190.000000	69.953882
1189.000000	69.930759
1188.000000	69.882327
1187.000000	69.887720
1186.000000	69.891198
1185.000000	69.886475
1184.000000	69.847553
1183.000000	69.855799
1182.000000	69.814584
1181.000000	69.821637
1180.000000	69.767795
1179.000000	69.786888
1178.000000	69.761635
1177.000000	69.769429
1176.000000	69.729538
1175.000000	69.731835
1174.000000	69.697542
1173.000000	69.706106
1172.000000	69.652369
1171.000000	69.683127
1170.000000	69.648534
1169.000000	69.626611
1168.000000	69.615062
1167.000000	69.617143
1166.000000	69.586822
1165.000000	69.604061
1164.000000	69.573300
