PE UV       SUBTECH     SPECTRUM    ASCII       PEDS        4.00        
   -1
d.Sample.asc
22/05/06
15:42:13.00
22/05/06
15:42:13.00
Administrator

200.000000
1
Lambda 1050
1050L1808311
PerkinElmer UV WinLab 6.4.0.973 / 2.02.11 Lambda 900 UV/VIS/NIR. May 23 2018 11:23:04

0
0
3350/servo 860.8/2
0
0
UV/VIS
1
1
1
CommonBeamDepol.RBeamAtt.SBeamAtt.60mm sphere
0
0
0
0
Program
Program
3350/servo 860.8/2
3350/0.2 860.8/0.2
3350/0.2 860.8/0.2
0
1.00
 
 
 
0
 
860.8
319.2
860.8
Front
100
on
S:100 R:100
 
0
0
0
 
0
 
 
 
0
 
 
0
0
0
0
0
 
 
 
 
0
0


0
0
#HDR
-1
-1
#GR
nm
%T
1.0
0.0
2000.000000
-1.000000
1801
8
406.496246
57.238950
#DATA
2000.000000	87.412051
1999.000000	87.463084
1998.000000	87.529498
1997.000000	87.496629
1996.000000	87.520477
1995.000000	87.416088
1994.000000	87.489295
1993.000000	87.499929
1992.000000	87.541554
1991.000000	87.550148
1990.000000	87.568013
1989.000000	87.570739
1988.000000	87.611683
1987.000000	87.563999
1986.000000	87.610773
1985.000000	87.543519
1984.000000	87.668316
1983.000000	87.584439
1982.000000	87.631476
1981.000000	87.621305
1980.000000	87.649640
1979.000000	87.690640
1978.000000	87.712834
1977.000000	87.668191
1976.000000	87.724162
1975.000000	87.728707
1974.000000	87.808759
1973.000000	87.769838
1972.000000	87.835238
1971.000000	87.814400
1970.000000	87.751472
1969.000000	87.796552
1968.000000	87.844260
1967.000000	87.842538
1966.000000	87.876164
1965.000000	87.860621
1964.000000	87.876436
1963.000000	87.908855
1962.000000	87.927952
1961.000000	87.895390
1960.000000	87.939877
1959.000000	87.967317
1958.000000	88.062123
1957.000000	87.987860
1956.000000	88.043865
1955.000000	88.083036
1954.000000	88.045118
1953.000000	88.082552
1952.000000	88.111398
1951.000000	88.113756
1950.000000	88.135053
1949.000000	88.138413
1948.000000	88.130808
1947.000000	88.166796
1946.000000	88.104078
1945.000000	88.121867
1944.000000	88.164798
1943.000000	88.139939
1942.000000	88.191152
1941.000000	88.190379
1940.000000	88.193185
1939.000000	88.195098
1938.000000	88.244211
1937.000000	88.224065
1936.000000	88.312267
1935.000000	88.260400
1934.000000	88.278982
1933.000000	88.304447
1932.000000	88.332461
1931.000000	88.366304
1930.000000	88.361102
1929.000000	88.345835
1928.000000	88.353620
1927.000000	88.382003
1926.000000	88.390563
1925.000000	88.386434
1924.000000	88.445834
1923.000000	88.418352
1922.000000	88.431969
1921.000000	88.440506
1920.000000	88.448764
1919.000000	88.413449
1918.000000	88.419038
1917.000000	88.458827
1916.000000	88.504524
1915.000000	88.519943
1914.000000	88.523264
1913.000000	88.473554
1912.000000	88.438756
1911.000000	88.468890
1910.000000	88.489029
1909.000000	88.425142
1908.000000	88.466156
1907.000000	88.443370
1906.000000	88.427449
1905.000000	88.401716
1904.000000	88.425013
1903.000000	88.365219
1902.000000	88.370490
1901.000000	88.375432
1900.000000	88.393801
1899.000000	88.400087
1898.000000	88.369403
1897.000000	88.329101
1896.000000	88.372672
1895.000000	88.372758
1894.000000	88.358066
1893.000000	88.349109
1892.000000	88.369594
1891.000000	88.366051
1890.000000	88.341994
1889.000000	88.333753
1888.000000	88.379552
1887.000000	88.429319
1886.000000	88.452737
1885.000000	88.451910
1884.000000	88.479007
1883.000000	88.453577
1882.000000	88.363174
1881.000000	88.356198
1880.000000	88.412912
1879.000000	88.440103
1878.000000	88.427383
1877.000000	88.420431
1876.000000	88.449773
1875.000000	88.401394
1874.000000	88.352816
1873.000000	88.348670
1872.000000	88.353170
1871.000000	88.338512
1870.000000	88.326502
1869.000000	88.357770
1868.000000	88.333490
1867.000000	88.282903
1866.000000	88.328255
1865.000000	88.336984
1864.000000	88.335119
1863.000000	88.389680
1862.000000	88.382420
1861.000000	88.358922
1860.000000	88.358928
1859.000000	88.358274
1858.000000	88.367098
1857.000000	88.380176
1856.000000	88.349498
1855.000000	88.347899
1854.000000	88.375725
1853.000000	88.389144
1852.000000	88.400361
1851.000000	88.415800
1850.000000	88.380005
1849.000000	88.340855
1848.000000	88.320334
1847.000000	88.332598
1846.000000	88.328590
1845.000000	88.343566
1844.000000	88.323622
1843.000000	88.278377
1842.000000	88.277920
1841.000000	88.291216
1840.000000	88.286661
1839.000000	88.279640
1838.000000	88.277190
1837.000000	88.286040
1836.000000	88.276990
1835.000000	88.257364
1834.000000	88.217193
1833.000000	88.212302
1832.000000	88.208755
1831.000000	88.217812
1830.000000	88.215584
1829.000000	88.210055
1828.000000	88.216754
1827.000000	88.235609
1826.000000	88.228812
1825.000000	88.227877
1824.000000	88.232482
1823.000000	88.221801
1822.000000	88.212552
1821.000000	88.210512
1820.000000	88.193994
1819.000000	88.134239
1818.000000	88.143650
1817.000000	88.157023
1816.000000	88.162477
1815.000000	88.175905
1814.000000	88.164190
1813.000000	88.160841
1812.000000	88.158606
1811.000000	88.156803
1810.000000	88.127956
1809.000000	88.121103
1808.000000	88.136113
1807.000000	88.128971
1806.000000	88.086939
1805.000000	88.076533
1804.000000	88.053958
1803.000000	88.082533
1802.000000	88.068302
1801.000000	88.062698
1800.000000	88.022065
1799.000000	88.065142
1798.000000	88.068140
1797.000000	88.041125
1796.000000	88.037469
1795.000000	88.027720
1794.000000	88.003631
1793.000000	88.014261
1792.000000	88.018313
1791.000000	88.013702
1790.000000	87.983125
1789.000000	87.955360
1788.000000	87.998985
1787.000000	87.982844
1786.000000	87.958001
1785.000000	87.958322
1784.000000	87.929019
1783.000000	87.907028
1782.000000	87.879004
1781.000000	87.878298
1780.000000	87.884951
1779.000000	87.862743
1778.000000	87.853527
1777.000000	87.866316
1776.000000	87.838031
1775.000000	87.836333
1774.000000	87.797468
1773.000000	87.843311
1772.000000	87.789587
1771.000000	87.820264
1770.000000	87.773281
1769.000000	87.768419
1768.000000	87.754743
1767.000000	87.767573
1766.000000	87.745373
1765.000000	87.730737
1764.000000	87.706016
1763.000000	87.736520
1762.000000	87.717916
1761.000000	87.707224
1760.000000	87.682934
1759.000000	87.681324
1758.000000	87.636271
1757.000000	87.657330
1756.000000	87.659639
1755.000000	87.647174
1754.000000	87.611570
1753.000000	87.632214
1752.000000	87.588736
1751.000000	87.570928
1750.000000	87.557287
1749.000000	87.564266
1748.000000	87.533446
1747.000000	87.545480
1746.000000	87.534565
1745.000000	87.538847
1744.000000	87.512680
1743.000000	87.522057
1742.000000	87.489919
1741.000000	87.494636
1740.000000	87.483052
1739.000000	87.460625
1738.000000	87.412334
1737.000000	87.443557
1736.000000	87.401600
1735.000000	87.376192
1734.000000	87.366311
1733.000000	87.357637
1732.000000	87.350929
1731.000000	87.323109
1730.000000	87.306748
1729.000000	87.320394
1728.000000	87.272917
1727.000000	87.271677
1726.000000	87.234403
1725.000000	87.274967
1724.000000	87.227815
1723.000000	87.241233
1722.000000	87.159910
1721.000000	87.193718
1720.000000	87.180635
1719.000000	87.186816
1718.000000	87.142473
1717.000000	87.173791
1716.000000	87.091385
1715.000000	87.087162
1714.000000	87.070708
1713.000000	87.083415
1712.000000	87.029050
1711.000000	87.033111
1710.000000	86.981199
1709.000000	86.989038
1708.000000	86.945937
1707.000000	86.949366
1706.000000	86.933898
1705.000000	86.881744
1704.000000	86.830309
1703.000000	86.844003
1702.000000	86.809067
1701.000000	86.780926
1700.000000	86.727655
1699.000000	86.724982
1698.000000	86.677041
1697.000000	86.676288
1696.000000	86.649313
1695.000000	86.614603
1694.000000	86.582283
1693.000000	86.583962
1692.000000	86.535794
1691.000000	86.535203
1690.000000	86.485218
1689.000000	86.503102
1688.000000	86.454717
1687.000000	86.448091
1686.000000	86.407930
1685.000000	86.402849
1684.000000	86.393163
1683.000000	86.359497
1682.000000	86.331450
1681.000000	86.352039
1680.000000	86.321391
1679.000000	86.322542
1678.000000	86.286861
1677.000000	86.295051
1676.000000	86.277188
1675.000000	86.262176
1674.000000	86.256774
1673.000000	86.279453
1672.000000	86.252884
1671.000000	86.271895
1670.000000	86.255029
1669.000000	86.289480
1668.000000	86.265095
1667.000000	86.280629
1666.000000	86.263080
1665.000000	86.259129
1664.000000	86.240505
1663.000000	86.246611
1662.000000	86.244570
1661.000000	86.230847
1660.000000	86.210573
1659.000000	86.234811
1658.000000	86.219095
1657.000000	86.183902
1656.000000	86.188007
1655.000000	86.199040
1654.000000	86.165001
1653.000000	86.157140
1652.000000	86.156134
1651.000000	86.129967
1650.000000	86.117416
1649.000000	86.130922
1648.000000	86.118421
1647.000000	86.103534
1646.000000	86.103073
1645.000000	86.103356
1644.000000	86.083061
1643.000000	86.085536
1642.000000	86.058023
1641.000000	86.057575
1640.000000	86.031902
1639.000000	86.041504
1638.000000	86.029544
1637.000000	86.027369
1636.000000	86.014259
1635.000000	86.016025
1634.000000	86.015897
1633.000000	85.999237
1632.000000	85.998429
1631.000000	86.009516
1630.000000	85.991080
1629.000000	85.975126
1628.000000	85.965645
1627.000000	85.972590
1626.000000	85.959082
1625.000000	85.962128
1624.000000	85.955387
1623.000000	85.949904
1622.000000	85.951596
1621.000000	85.946910
1620.000000	85.938571
1619.000000	85.936692
1618.000000	85.932910
1617.000000	85.943540
1616.000000	85.950043
1615.000000	85.949766
1614.000000	85.940111
1613.000000	85.920542
1612.000000	85.911095
1611.000000	85.913389
1610.000000	85.914663
1609.000000	85.906303
1608.000000	85.904139
1607.000000	85.914089
1606.000000	85.920647
1605.000000	85.926411
1604.000000	85.908676
1603.000000	85.906819
1602.000000	85.931661
1601.000000	85.921587
1600.000000	85.912995
1599.000000	85.932714
1598.000000	85.934392
1597.000000	85.932255
1596.000000	85.935423
1595.000000	85.939638
1594.000000	85.925461
1593.000000	85.935601
1592.000000	85.941688
1591.000000	85.938497
1590.000000	85.943040
1589.000000	85.941510
1588.000000	85.942891
1587.000000	85.954803
1586.000000	85.956640
1585.000000	85.956593
1584.000000	85.947521
1583.000000	85.949536
1582.000000	85.974196
1581.000000	85.986773
1580.000000	85.982116
1579.000000	85.986213
1578.000000	85.998008
1577.000000	86.012105
1576.000000	86.001533
1575.000000	86.002385
1574.000000	86.019004
1573.000000	86.033295
1572.000000	86.040229
1571.000000	86.038139
1570.000000	86.049740
1569.000000	86.047198
1568.000000	86.033224
1567.000000	86.048528
1566.000000	86.068772
1565.000000	86.082301
1564.000000	86.103967
1563.000000	86.115665
1562.000000	86.132912
1561.000000	86.153241
1560.000000	86.168401
1559.000000	86.165846
1558.000000	86.178898
1557.000000	86.183663
1556.000000	86.167157
1555.000000	86.100361
1554.000000	85.965740
1553.000000	85.801473
1552.000000	85.747926
1551.000000	85.761494
1550.000000	85.785277
1549.000000	85.799315
1548.000000	85.808242
1547.000000	85.810531
1546.000000	85.827855
1545.000000	85.839519
1544.000000	85.859017
1543.000000	85.877885
1542.000000	85.879925
1541.000000	85.774437
1540.000000	85.739330
1539.000000	85.748735
1538.000000	85.762415
1537.000000	85.795318
1536.000000	85.885417
1535.000000	86.017837
1534.000000	86.087779
1533.000000	86.088997
1532.000000	86.104855
1531.000000	86.133630
1530.000000	86.166298
1529.000000	86.035847
1528.000000	85.982044
1527.000000	85.987179
1526.000000	86.020844
1525.000000	86.037014
1524.000000	86.181398
1523.000000	86.256600
1522.000000	86.284305
1521.000000	86.125394
1520.000000	86.068283
1519.000000	86.076898
1518.000000	86.276186
1517.000000	86.372288
1516.000000	86.390625
1515.000000	86.218517
1514.000000	86.208525
1513.000000	86.401072
1512.000000	86.481570
1511.000000	86.489046
1510.000000	86.349013
1509.000000	86.320719
1508.000000	86.516363
1507.000000	86.595358
1506.000000	86.621584
1505.000000	86.440176
1504.000000	86.580227
1503.000000	86.670294
1502.000000	86.680527
1501.000000	86.698985
1500.000000	86.540655
1499.000000	86.688007
1498.000000	86.771405
1497.000000	86.769040
1496.000000	86.801266
1495.000000	86.622861
1494.000000	86.624428
1493.000000	86.637262
1492.000000	86.843352
1491.000000	86.925004
1490.000000	86.965515
1489.000000	86.987401
1488.000000	86.988309
1487.000000	87.014557
1486.000000	86.862788
1485.000000	86.819697
1484.000000	86.866492
1483.000000	86.879620
1482.000000	86.921421
1481.000000	86.939015
1480.000000	87.165814
1479.000000	87.200671
1478.000000	87.218147
1477.000000	87.214027
1476.000000	87.253891
1475.000000	87.258157
1474.000000	87.278282
1473.000000	87.268976
1472.000000	87.288590
1471.000000	87.319458
1470.000000	87.332238
1469.000000	87.352006
1468.000000	87.194319
1467.000000	87.215469
1466.000000	87.431679
1465.000000	87.463274
1464.000000	87.485635
1463.000000	87.508010
1462.000000	87.552845
1461.000000	87.387186
1460.000000	87.571003
1459.000000	87.596065
1458.000000	87.614433
1457.000000	87.630620
1456.000000	87.650128
1455.000000	87.477205
1454.000000	87.462664
1453.000000	87.669069
1452.000000	87.704142
1451.000000	87.748064
1450.000000	87.796936
1449.000000	87.786325
1448.000000	87.809935
1447.000000	87.794523
1446.000000	87.817037
1445.000000	87.847971
1444.000000	87.884634
1443.000000	87.690362
1442.000000	87.718586
1441.000000	87.688374
1440.000000	87.741755
1439.000000	87.721728
1438.000000	87.949293
1437.000000	87.984677
1436.000000	87.976601
1435.000000	87.986521
1434.000000	88.016589
1433.000000	88.010625
1432.000000	88.041655
1431.000000	88.036921
1430.000000	88.082999
1429.000000	88.062119
1428.000000	88.076599
1427.000000	88.088338
1426.000000	88.107313
1425.000000	88.103318
1424.000000	88.123401
1423.000000	88.167111
1422.000000	88.154359
1421.000000	88.030366
1420.000000	88.032599
1419.000000	87.998448
1418.000000	88.143491
1417.000000	88.180884
1416.000000	88.171341
1415.000000	88.140764
1414.000000	87.967936
1413.000000	88.165983
1412.000000	87.999931
1411.000000	87.995014
1410.000000	88.008002
1409.000000	88.187409
1408.000000	87.959174
1407.000000	87.936690
1406.000000	88.116083
1405.000000	88.121074
1404.000000	87.923446
1403.000000	87.916501
1402.000000	87.912374
1401.000000	87.875829
1400.000000	87.904145
1399.000000	87.896576
1398.000000	87.917378
1397.000000	88.092542
1396.000000	88.097865
1395.000000	88.057097
1394.000000	88.066573
1393.000000	88.061633
1392.000000	88.055373
1391.000000	88.014261
1390.000000	87.988207
1389.000000	87.976071
1388.000000	88.009356
1387.000000	87.978711
1386.000000	87.968361
1385.000000	87.959144
1384.000000	87.931351
1383.000000	87.925065
1382.000000	87.896978
1381.000000	87.764288
1380.000000	87.745810
1379.000000	87.701565
1378.000000	87.572575
1377.000000	87.716186
1376.000000	87.852862
1375.000000	87.646042
1374.000000	87.615111
1373.000000	87.590631
1372.000000	87.570550
1371.000000	87.547587
1370.000000	87.535690
1369.000000	87.502661
1368.000000	87.455616
1367.000000	87.441258
1366.000000	87.420512
1365.000000	87.359465
1364.000000	87.349344
1363.000000	87.347716
1362.000000	87.507342
1361.000000	87.427471
1360.000000	87.214066
1359.000000	87.196149
1358.000000	87.178794
1357.000000	87.170436
1356.000000	87.208321
1355.000000	87.357189
1354.000000	87.334791
1353.000000	87.274399
1352.000000	87.121238
1351.000000	87.110232
1350.000000	87.108617
1349.000000	87.182839
1348.000000	87.325900
1347.000000	87.298995
1346.000000	87.290270
1345.000000	87.285316
1344.000000	87.233409
1343.000000	87.167051
1342.000000	87.268585
1341.000000	87.257097
1340.000000	87.238654
1339.000000	87.229362
1338.000000	87.217559
1337.000000	87.205535
1336.000000	87.158216
1335.000000	87.105386
1334.000000	87.184273
1333.000000	87.161184
1332.000000	87.157867
1331.000000	87.132553
1330.000000	87.109569
1329.000000	87.092819
1328.000000	87.080683
1327.000000	87.056996
1326.000000	87.022395
1325.000000	87.002199
1324.000000	87.001246
1323.000000	86.986079
1322.000000	86.956547
1321.000000	86.920347
1320.000000	86.908018
1319.000000	86.860277
1318.000000	86.825862
1317.000000	86.857628
1316.000000	86.854995
1315.000000	86.836949
1314.000000	86.831132
1313.000000	86.808070
1312.000000	86.724662
1311.000000	86.617113
1310.000000	86.608609
1309.000000	86.600348
1308.000000	86.579291
1307.000000	86.608923
1306.000000	86.652628
1305.000000	86.632368
1304.000000	86.620346
1303.000000	86.597536
1302.000000	86.586420
1301.000000	86.514225
1300.000000	86.414346
1299.000000	86.397836
1298.000000	86.438454
1297.000000	86.479746
1296.000000	86.461946
1295.000000	86.443110
1294.000000	86.434752
1293.000000	86.429348
1292.000000	86.418711
1291.000000	86.407788
1290.000000	86.334697
1289.000000	86.329028
1288.000000	86.386167
1287.000000	86.362872
1286.000000	86.354152
1285.000000	86.351982
1284.000000	86.352133
1283.000000	86.295351
1282.000000	86.228038
1281.000000	86.287348
1280.000000	86.320298
1279.000000	86.306228
1278.000000	86.318985
1277.000000	86.324999
1276.000000	86.300512
1275.000000	86.290667
1274.000000	86.286112
1273.000000	86.279318
1272.000000	86.275626
1271.000000	86.271056
1270.000000	86.247589
1269.000000	86.191405
1268.000000	86.149891
1267.000000	86.200058
1266.000000	86.247953
1265.000000	86.249268
1264.000000	86.242082
1263.000000	86.222635
1262.000000	86.219193
1261.000000	86.230445
1260.000000	86.240896
1259.000000	86.244112
1258.000000	86.241511
1257.000000	86.257808
1256.000000	86.252840
1255.000000	86.263321
1254.000000	86.265604
1253.000000	86.202926
1252.000000	86.177907
1251.000000	86.194491
1250.000000	86.245646
1249.000000	86.286306
1248.000000	86.305637
1247.000000	86.307102
1246.000000	86.317167
1245.000000	86.268769
1244.000000	86.300731
1243.000000	86.361769
1242.000000	86.365151
1241.000000	86.382125
1240.000000	86.384379
1239.000000	86.393810
1238.000000	86.396193
1237.000000	86.414456
1236.000000	86.441565
1235.000000	86.459653
1234.000000	86.461196
1233.000000	86.491703
1232.000000	86.484375
1231.000000	86.471404
1230.000000	86.534299
1229.000000	86.581149
1228.000000	86.598853
1227.000000	86.617812
1226.000000	86.546178
1225.000000	86.512205
1224.000000	86.526114
1223.000000	86.564545
1222.000000	86.673590
1221.000000	86.724702
1220.000000	86.718939
1219.000000	86.758006
1218.000000	86.767764
1217.000000	86.780922
1216.000000	86.820761
1215.000000	86.866771
1214.000000	86.888306
1213.000000	86.834040
1212.000000	86.827465
1211.000000	86.902167
1210.000000	86.930796
1209.000000	86.972100
1208.000000	86.922204
1207.000000	87.040505
1206.000000	87.069975
1205.000000	87.097788
1204.000000	87.025729
1203.000000	87.119383
1202.000000	87.169287
1201.000000	87.191097
1200.000000	87.215975
1199.000000	87.246533
1198.000000	87.261101
1197.000000	87.188403
1196.000000	87.225022
1195.000000	87.241775
1194.000000	87.250259
1193.000000	87.269518
1192.000000	87.305397
1191.000000	87.348931
1190.000000	87.474272
1189.000000	87.483733
1188.000000	87.495332
1187.000000	87.532657
1186.000000	87.567922
1185.000000	87.606387
1184.000000	87.631039
1183.000000	87.665647
1182.000000	87.667389
1181.000000	87.705444
1180.000000	87.722433
1179.000000	87.745169
1178.000000	87.763028
1177.000000	87.806698
1176.000000	87.831513
1175.000000	87.840186
1174.000000	87.866212
1173.000000	87.881038
1172.000000	87.870916
1171.000000	87.916434
1170.000000	87.911515
1169.000000	87.920431
1168.000000	87.970356
1167.000000	88.006158
1166.000000	88.027719
1165.000000	88.057995
1164.000000	88.074789
