PE UV       SUBTECH     SPECTRUM    ASCII       PEDS        4.00        
   -1
b.Sample.asc
22/05/06
15:16:14.00
22/05/06
15:16:14.00
Administrator

200.000000
1
Lambda 1050
1050L1808311
PerkinElmer UV WinLab 6.4.0.973 / 2.02.11 Lambda 900 UV/VIS/NIR. May 23 2018 11:23:04

0
0
3350/servo 860.8/2
0
0
UV/VIS
1
1
1
CommonBeamDepol.RBeamAtt.SBeamAtt.60mm sphere
0
0
0
0
Program
Program
3350/servo 860.8/2
3350/0.2 860.8/0.2
3350/0.2 860.8/0.2
0
1.00
 
 
 
0
 
860.8
319.2
860.8
Front
100
on
S:100 R:100
 
0
0
0
 
0
 
 
 
0
 
 
0
0
0
0
0
 
 
 
 
0
0


0
0
#HDR
-1
-1
#GR
nm
%T
1.0
0.0
2000.000000
-1.000000
1801
8
400.732655
58.425380
#DATA
2000.000000	88.322032
1999.000000	88.295674
1998.000000	88.408326
1997.000000	88.293649
1996.000000	88.364176
1995.000000	88.333473
1994.000000	88.345656
1993.000000	88.369157
1992.000000	88.437101
1991.000000	88.439708
1990.000000	88.460174
1989.000000	88.452606
1988.000000	88.441609
1987.000000	88.444628
1986.000000	88.517455
1985.000000	88.463474
1984.000000	88.489365
1983.000000	88.488192
1982.000000	88.478376
1981.000000	88.496507
1980.000000	88.513505
1979.000000	88.542225
1978.000000	88.577174
1977.000000	88.560003
1976.000000	88.605807
1975.000000	88.647307
1974.000000	88.716992
1973.000000	88.647908
1972.000000	88.717286
1971.000000	88.738946
1970.000000	88.655879
1969.000000	88.701031
1968.000000	88.788360
1967.000000	88.733269
1966.000000	88.747147
1965.000000	88.821572
1964.000000	88.773450
1963.000000	88.788742
1962.000000	88.852529
1961.000000	88.809540
1960.000000	88.793161
1959.000000	88.728379
1958.000000	88.856893
1957.000000	88.785667
1956.000000	88.775067
1955.000000	88.816976
1954.000000	88.826529
1953.000000	88.822162
1952.000000	88.850778
1951.000000	88.811662
1950.000000	88.872348
1949.000000	88.903773
1948.000000	88.877350
1947.000000	88.907764
1946.000000	88.884444
1945.000000	88.915637
1944.000000	88.986536
1943.000000	88.962928
1942.000000	89.032201
1941.000000	89.000566
1940.000000	89.004308
1939.000000	89.024713
1938.000000	89.048047
1937.000000	89.083136
1936.000000	89.149541
1935.000000	89.115793
1934.000000	89.170859
1933.000000	89.226085
1932.000000	89.242495
1931.000000	89.326021
1930.000000	89.277267
1929.000000	89.241357
1928.000000	89.286995
1927.000000	89.274864
1926.000000	89.226564
1925.000000	89.257542
1924.000000	89.171840
1923.000000	89.123284
1922.000000	89.177289
1921.000000	89.162568
1920.000000	89.170694
1919.000000	89.160935
1918.000000	89.186030
1917.000000	89.155769
1916.000000	89.211637
1915.000000	89.177269
1914.000000	89.176691
1913.000000	89.216082
1912.000000	89.172509
1911.000000	89.177425
1910.000000	89.211500
1909.000000	89.195924
1908.000000	89.225495
1907.000000	89.217094
1906.000000	89.232168
1905.000000	89.259262
1904.000000	89.314211
1903.000000	89.243339
1902.000000	89.260842
1901.000000	89.269698
1900.000000	89.277598
1899.000000	89.247632
1898.000000	89.252835
1897.000000	89.249382
1896.000000	89.246866
1895.000000	89.251498
1894.000000	89.273351
1893.000000	89.244878
1892.000000	89.269851
1891.000000	89.217574
1890.000000	89.181189
1889.000000	89.192802
1888.000000	89.224826
1887.000000	89.263166
1886.000000	89.292074
1885.000000	89.279148
1884.000000	89.236364
1883.000000	89.213443
1882.000000	89.194572
1881.000000	89.168717
1880.000000	89.204969
1879.000000	89.208538
1878.000000	89.192740
1877.000000	89.177504
1876.000000	89.197841
1875.000000	89.161702
1874.000000	89.158071
1873.000000	89.177866
1872.000000	89.153570
1871.000000	89.113363
1870.000000	89.101048
1869.000000	89.090441
1868.000000	89.058927
1867.000000	89.053419
1866.000000	89.064798
1865.000000	89.055078
1864.000000	89.052665
1863.000000	89.041679
1862.000000	89.032542
1861.000000	89.025819
1860.000000	89.010910
1859.000000	88.986014
1858.000000	88.968653
1857.000000	88.953242
1856.000000	88.915738
1855.000000	88.916716
1854.000000	88.951315
1853.000000	88.940720
1852.000000	88.939157
1851.000000	88.966202
1850.000000	88.947519
1849.000000	88.904723
1848.000000	88.862648
1847.000000	88.888963
1846.000000	88.876329
1845.000000	88.852890
1844.000000	88.836802
1843.000000	88.850390
1842.000000	88.847096
1841.000000	88.844075
1840.000000	88.841560
1839.000000	88.823829
1838.000000	88.845215
1837.000000	88.855917
1836.000000	88.821147
1835.000000	88.798437
1834.000000	88.788276
1833.000000	88.755221
1832.000000	88.749756
1831.000000	88.763246
1830.000000	88.773770
1829.000000	88.769324
1828.000000	88.751681
1827.000000	88.737391
1826.000000	88.721763
1825.000000	88.716771
1824.000000	88.697875
1823.000000	88.699892
1822.000000	88.648807
1821.000000	88.621492
1820.000000	88.611957
1819.000000	88.583886
1818.000000	88.550837
1817.000000	88.551133
1816.000000	88.553310
1815.000000	88.549829
1814.000000	88.496561
1813.000000	88.477709
1812.000000	88.473545
1811.000000	88.457804
1810.000000	88.439377
1809.000000	88.431274
1808.000000	88.411920
1807.000000	88.414143
1806.000000	88.389983
1805.000000	88.374439
1804.000000	88.346088
1803.000000	88.349957
1802.000000	88.350404
1801.000000	88.331730
1800.000000	88.286539
1799.000000	88.293301
1798.000000	88.254021
1797.000000	88.241973
1796.000000	88.221872
1795.000000	88.213888
1794.000000	88.208718
1793.000000	88.210273
1792.000000	88.193073
1791.000000	88.165541
1790.000000	88.117493
1789.000000	88.095823
1788.000000	88.132350
1787.000000	88.098538
1786.000000	88.064416
1785.000000	88.051006
1784.000000	88.012970
1783.000000	88.002269
1782.000000	87.970225
1781.000000	87.975460
1780.000000	87.952778
1779.000000	87.942483
1778.000000	87.939654
1777.000000	87.919200
1776.000000	87.890645
1775.000000	87.874831
1774.000000	87.832901
1773.000000	87.845447
1772.000000	87.840138
1771.000000	87.840701
1770.000000	87.815143
1769.000000	87.773804
1768.000000	87.752836
1767.000000	87.760171
1766.000000	87.753674
1765.000000	87.777389
1764.000000	87.722165
1763.000000	87.732930
1762.000000	87.692221
1761.000000	87.715415
1760.000000	87.669468
1759.000000	87.642504
1758.000000	87.625050
1757.000000	87.644649
1756.000000	87.641900
1755.000000	87.603405
1754.000000	87.561509
1753.000000	87.571369
1752.000000	87.511743
1751.000000	87.530975
1750.000000	87.508224
1749.000000	87.493193
1748.000000	87.470905
1747.000000	87.469792
1746.000000	87.448082
1745.000000	87.467527
1744.000000	87.432359
1743.000000	87.427596
1742.000000	87.379394
1741.000000	87.403766
1740.000000	87.339946
1739.000000	87.326762
1738.000000	87.311359
1737.000000	87.292183
1736.000000	87.277588
1735.000000	87.264943
1734.000000	87.238630
1733.000000	87.247170
1732.000000	87.201493
1731.000000	87.226454
1730.000000	87.149452
1729.000000	87.214315
1728.000000	87.148888
1727.000000	87.105307
1726.000000	87.123878
1725.000000	87.155908
1724.000000	87.073891
1723.000000	87.085315
1722.000000	87.037444
1721.000000	87.056901
1720.000000	87.059159
1719.000000	87.053267
1718.000000	86.999406
1717.000000	86.997930
1716.000000	86.928236
1715.000000	86.941871
1714.000000	86.925743
1713.000000	86.908112
1712.000000	86.859424
1711.000000	86.839596
1710.000000	86.819019
1709.000000	86.811828
1708.000000	86.766785
1707.000000	86.792609
1706.000000	86.765518
1705.000000	86.711687
1704.000000	86.657954
1703.000000	86.646925
1702.000000	86.653656
1701.000000	86.621445
1700.000000	86.531661
1699.000000	86.532754
1698.000000	86.479178
1697.000000	86.473246
1696.000000	86.457650
1695.000000	86.454313
1694.000000	86.413249
1693.000000	86.416074
1692.000000	86.370052
1691.000000	86.376538
1690.000000	86.306706
1689.000000	86.300509
1688.000000	86.272162
1687.000000	86.271552
1686.000000	86.243093
1685.000000	86.263514
1684.000000	86.225710
1683.000000	86.209562
1682.000000	86.152341
1681.000000	86.171514
1680.000000	86.128917
1679.000000	86.177597
1678.000000	86.154510
1677.000000	86.156629
1676.000000	86.123173
1675.000000	86.116973
1674.000000	86.104062
1673.000000	86.137508
1672.000000	86.110991
1671.000000	86.115463
1670.000000	86.120695
1669.000000	86.143691
1668.000000	86.102994
1667.000000	86.130928
1666.000000	86.105850
1665.000000	86.102290
1664.000000	86.109633
1663.000000	86.135467
1662.000000	86.124438
1661.000000	86.123649
1660.000000	86.126850
1659.000000	86.118420
1658.000000	86.111846
1657.000000	86.105463
1656.000000	86.094799
1655.000000	86.092070
1654.000000	86.062929
1653.000000	86.084733
1652.000000	86.074066
1651.000000	86.076444
1650.000000	86.065559
1649.000000	86.078068
1648.000000	86.052131
1647.000000	86.041694
1646.000000	86.038447
1645.000000	86.057157
1644.000000	86.044859
1643.000000	86.050551
1642.000000	86.033479
1641.000000	86.042691
1640.000000	86.034123
1639.000000	86.038615
1638.000000	86.042102
1637.000000	86.052488
1636.000000	86.029932
1635.000000	86.026365
1634.000000	86.026350
1633.000000	86.037712
1632.000000	86.041369
1631.000000	86.048129
1630.000000	86.058641
1629.000000	86.058945
1628.000000	86.051600
1627.000000	86.086725
1626.000000	86.068109
1625.000000	86.066041
1624.000000	86.063779
1623.000000	86.056851
1622.000000	86.085413
1621.000000	86.084744
1620.000000	86.085887
1619.000000	86.115420
1618.000000	86.126352
1617.000000	86.127841
1616.000000	86.121290
1615.000000	86.118891
1614.000000	86.132194
1613.000000	86.143907
1612.000000	86.150936
1611.000000	86.165467
1610.000000	86.166276
1609.000000	86.166796
1608.000000	86.167840
1607.000000	86.199404
1606.000000	86.208728
1605.000000	86.207776
1604.000000	86.208613
1603.000000	86.226193
1602.000000	86.235563
1601.000000	86.227078
1600.000000	86.243291
1599.000000	86.259187
1598.000000	86.281415
1597.000000	86.314759
1596.000000	86.317768
1595.000000	86.326913
1594.000000	86.326987
1593.000000	86.346307
1592.000000	86.382834
1591.000000	86.392969
1590.000000	86.388612
1589.000000	86.396751
1588.000000	86.426615
1587.000000	86.452483
1586.000000	86.468905
1585.000000	86.481415
1584.000000	86.484078
1583.000000	86.506667
1582.000000	86.530229
1581.000000	86.542037
1580.000000	86.554381
1579.000000	86.553856
1578.000000	86.565595
1577.000000	86.591167
1576.000000	86.599195
1575.000000	86.629212
1574.000000	86.656728
1573.000000	86.678175
1572.000000	86.704875
1571.000000	86.712251
1570.000000	86.718920
1569.000000	86.730824
1568.000000	86.750710
1567.000000	86.781846
1566.000000	86.814493
1565.000000	86.844440
1564.000000	86.870558
1563.000000	86.888165
1562.000000	86.902973
1561.000000	86.924913
1560.000000	86.950685
1559.000000	86.962162
1558.000000	86.983408
1557.000000	87.009661
1556.000000	87.028887
1555.000000	87.019558
1554.000000	86.968982
1553.000000	86.866201
1552.000000	86.705558
1551.000000	86.644124
1550.000000	86.678853
1549.000000	86.698576
1548.000000	86.719903
1547.000000	86.755627
1546.000000	86.783311
1545.000000	86.795779
1544.000000	86.819234
1543.000000	86.851889
1542.000000	86.873476
1541.000000	86.756536
1540.000000	86.724241
1539.000000	86.756753
1538.000000	86.780714
1537.000000	86.832974
1536.000000	86.946876
1535.000000	87.092212
1534.000000	87.170974
1533.000000	87.202489
1532.000000	87.242265
1531.000000	87.255164
1530.000000	87.279010
1529.000000	87.162428
1528.000000	87.121582
1527.000000	87.144603
1526.000000	87.175743
1525.000000	87.196460
1524.000000	87.363740
1523.000000	87.456022
1522.000000	87.476061
1521.000000	87.475968
1520.000000	87.341168
1519.000000	87.305223
1518.000000	87.509984
1517.000000	87.611822
1516.000000	87.643258
1515.000000	87.489662
1514.000000	87.457433
1513.000000	87.658031
1512.000000	87.755221
1511.000000	87.762911
1510.000000	87.635957
1509.000000	87.619510
1508.000000	87.830671
1507.000000	87.914925
1506.000000	87.962250
1505.000000	87.787797
1504.000000	87.937721
1503.000000	88.017621
1502.000000	88.033829
1501.000000	88.051147
1500.000000	87.909430
1499.000000	88.058867
1498.000000	88.141259
1497.000000	88.149242
1496.000000	88.168371
1495.000000	88.174086
1494.000000	88.060735
1493.000000	88.036532
1492.000000	88.242079
1491.000000	88.308713
1490.000000	88.356789
1489.000000	88.397962
1488.000000	88.431270
1487.000000	88.461508
1486.000000	88.511045
1485.000000	88.326844
1484.000000	88.298387
1483.000000	88.332504
1482.000000	88.361205
1481.000000	88.396009
1480.000000	88.616037
1479.000000	88.660992
1478.000000	88.686053
1477.000000	88.690148
1476.000000	88.718852
1475.000000	88.727777
1474.000000	88.743901
1473.000000	88.738917
1472.000000	88.770580
1471.000000	88.783604
1470.000000	88.807110
1469.000000	88.835589
1468.000000	88.870376
1467.000000	88.694295
1466.000000	88.908153
1465.000000	88.920685
1464.000000	88.934985
1463.000000	88.930721
1462.000000	88.969962
1461.000000	88.798232
1460.000000	88.986768
1459.000000	89.042467
1458.000000	89.053031
1457.000000	89.063291
1456.000000	89.084530
1455.000000	89.087773
1454.000000	88.897249
1453.000000	89.103822
1452.000000	89.149532
1451.000000	89.159271
1450.000000	89.179305
1449.000000	89.162087
1448.000000	89.211823
1447.000000	89.193104
1446.000000	89.209756
1445.000000	89.206919
1444.000000	89.241434
1443.000000	89.237129
1442.000000	89.266227
1441.000000	89.032502
1440.000000	89.080176
1439.000000	89.073233
1438.000000	89.296194
1437.000000	89.318934
1436.000000	89.326078
1435.000000	89.297597
1434.000000	89.335220
1433.000000	89.335271
1432.000000	89.336484
1431.000000	89.331220
1430.000000	89.362129
1429.000000	89.352511
1428.000000	89.336310
1427.000000	89.339139
1426.000000	89.384672
1425.000000	89.349001
1424.000000	89.361722
1423.000000	89.362822
1422.000000	89.364085
1421.000000	89.318669
1420.000000	89.343915
1419.000000	89.168325
1418.000000	89.306982
1417.000000	89.335019
1416.000000	89.323256
1415.000000	89.263028
1414.000000	89.265318
1413.000000	89.266923
1412.000000	89.099079
1411.000000	89.077064
1410.000000	89.304110
1409.000000	89.441113
1408.000000	89.226546
1407.000000	89.197027
1406.000000	89.171293
1405.000000	89.157970
1404.000000	88.976132
1403.000000	88.936755
1402.000000	89.135514
1401.000000	89.104002
1400.000000	89.111446
1399.000000	89.099818
1398.000000	89.101391
1397.000000	89.047430
1396.000000	89.061969
1395.000000	89.000349
1394.000000	88.993691
1393.000000	88.951918
1392.000000	88.932857
1391.000000	88.903801
1390.000000	88.874668
1389.000000	88.845834
1388.000000	88.842315
1387.000000	88.827576
1386.000000	88.801350
1385.000000	88.778116
1384.000000	88.746388
1383.000000	88.740552
1382.000000	88.737075
1381.000000	88.693163
1380.000000	88.678573
1379.000000	88.646120
1378.000000	88.504890
1377.000000	88.462255
1376.000000	88.612688
1375.000000	88.578401
1374.000000	88.536227
1373.000000	88.502930
1372.000000	88.478521
1371.000000	88.442981
1370.000000	88.440342
1369.000000	88.381532
1368.000000	88.285360
1367.000000	88.089709
1366.000000	88.040502
1365.000000	88.014204
1364.000000	87.998418
1363.000000	88.006040
1362.000000	88.178419
1361.000000	88.142851
1360.000000	88.110556
1359.000000	88.007005
1358.000000	87.884579
1357.000000	88.052132
1356.000000	88.017588
1355.000000	87.978849
1354.000000	87.950238
1353.000000	87.934181
1352.000000	87.921892
1351.000000	87.861560
1350.000000	87.824276
1349.000000	87.816824
1348.000000	87.825781
1347.000000	87.798608
1346.000000	87.791766
1345.000000	87.776284
1344.000000	87.697828
1343.000000	87.593836
1342.000000	87.739939
1341.000000	87.768624
1340.000000	87.619098
1339.000000	87.565474
1338.000000	87.642902
1337.000000	87.632106
1336.000000	87.609883
1335.000000	87.639871
1334.000000	87.680821
1333.000000	87.585166
1332.000000	87.581507
1331.000000	87.537879
1330.000000	87.520304
1329.000000	87.507401
1328.000000	87.511906
1327.000000	87.483660
1326.000000	87.439534
1325.000000	87.423149
1324.000000	87.407435
1323.000000	87.391266
1322.000000	87.367501
1321.000000	87.336824
1320.000000	87.339049
1319.000000	87.338047
1318.000000	87.317150
1317.000000	87.290477
1316.000000	87.256525
1315.000000	87.235720
1314.000000	87.231568
1313.000000	87.198954
1312.000000	87.176307
1311.000000	87.162661
1310.000000	87.158033
1309.000000	87.155301
1308.000000	87.150504
1307.000000	87.131982
1306.000000	87.118289
1305.000000	87.103176
1304.000000	87.080076
1303.000000	87.070639
1302.000000	87.061096
1301.000000	87.055951
1300.000000	87.054360
1299.000000	87.005046
1298.000000	86.992626
1297.000000	87.046869
1296.000000	87.044604
1295.000000	87.097207
1294.000000	87.105550
1293.000000	87.014306
1292.000000	87.005243
1291.000000	87.010564
1290.000000	87.002165
1289.000000	87.001384
1288.000000	87.014239
1287.000000	87.015170
1286.000000	87.013282
1285.000000	87.019840
1284.000000	87.030545
1283.000000	87.032788
1282.000000	87.038112
1281.000000	87.060316
1280.000000	87.062816
1279.000000	87.070252
1278.000000	87.083787
1277.000000	87.103181
1276.000000	87.106138
1275.000000	87.113530
1274.000000	87.122345
1273.000000	87.134233
1272.000000	87.139599
1271.000000	87.145034
1270.000000	87.143251
1269.000000	87.147107
1268.000000	87.146083
1267.000000	87.157976
1266.000000	87.178850
1265.000000	87.192513
1264.000000	87.221598
1263.000000	87.234129
1262.000000	87.233514
1261.000000	87.255656
1260.000000	87.291932
1259.000000	87.328585
1258.000000	87.348452
1257.000000	87.367011
1256.000000	87.376173
1255.000000	87.395907
1254.000000	87.417699
1253.000000	87.447474
1252.000000	87.468177
1251.000000	87.501273
1250.000000	87.519453
1249.000000	87.538513
1248.000000	87.563322
1247.000000	87.573897
1246.000000	87.597931
1245.000000	87.638995
1244.000000	87.688011
1243.000000	87.730954
1242.000000	87.744170
1241.000000	87.762178
1240.000000	87.783968
1239.000000	87.822996
1238.000000	87.847523
1237.000000	87.893692
1236.000000	87.905007
1235.000000	87.948595
1234.000000	87.957460
1233.000000	88.003465
1232.000000	88.037725
1231.000000	88.078692
1230.000000	88.107627
1229.000000	88.137796
1228.000000	88.170594
1227.000000	88.202670
1226.000000	88.147787
1225.000000	88.228553
1224.000000	88.314522
1223.000000	88.347577
1222.000000	88.377524
1221.000000	88.416703
1220.000000	88.438045
1219.000000	88.493950
1218.000000	88.510973
1217.000000	88.541880
1216.000000	88.591765
1215.000000	88.638069
1214.000000	88.662524
1213.000000	88.705977
1212.000000	88.745171
1211.000000	88.751352
1210.000000	88.778412
1209.000000	88.825417
1208.000000	88.797202
1207.000000	88.927293
1206.000000	88.975382
1205.000000	89.008760
1204.000000	89.033365
1203.000000	89.059974
1202.000000	89.093130
1201.000000	89.136577
1200.000000	89.176768
1199.000000	89.232780
1198.000000	89.262708
1197.000000	89.280153
1196.000000	89.315115
1195.000000	89.358730
1194.000000	89.363981
1193.000000	89.389293
1192.000000	89.418611
1191.000000	89.446049
1190.000000	89.496632
1189.000000	89.504825
1188.000000	89.523200
1187.000000	89.550314
1186.000000	89.575590
1185.000000	89.595610
1184.000000	89.628326
1183.000000	89.653583
1182.000000	89.676409
1181.000000	89.705193
1180.000000	89.724112
1179.000000	89.742338
1178.000000	89.766933
1177.000000	89.789008
1176.000000	89.787537
1175.000000	89.798430
1174.000000	89.803643
1173.000000	89.818460
1172.000000	89.829488
1171.000000	89.851369
1170.000000	89.839197
1169.000000	89.842596
1168.000000	89.867199
1167.000000	89.908820
1166.000000	89.901584
1165.000000	89.931677
1164.000000	89.911720
