PE UV       SUBTECH     SPECTRUM    ASCII       PEDS        4.00        
   -1
e.Sample.asc
22/05/06
15:54:34.00
22/05/06
15:54:34.00
Administrator

200.000000
1
Lambda 1050
1050L1808311
PerkinElmer UV WinLab 6.4.0.973 / 2.02.11 Lambda 900 UV/VIS/NIR. May 23 2018 11:23:04

0
0
3350/servo 860.8/2
0
0
UV/VIS
1
1
1
CommonBeamDepol.RBeamAtt.SBeamAtt.60mm sphere
0
0
0
0
Program
Program
3350/servo 860.8/2
3350/0.2 860.8/0.2
3350/0.2 860.8/0.2
0
1.00
 
 
 
0
 
860.8
319.2
860.8
Front
100
on
S:100 R:100
 
0
0
0
 
0
 
 
 
0
 
 
0
0
0
0
0
 
 
 
 
0
0


0
0
#HDR
-1
-1
#GR
nm
%T
1.0
0.0
2000.000000
-1.000000
1801
8
401.116702
58.493224
#DATA
2000.000000	86.950900
1999.000000	86.898561
1998.000000	86.995022
1997.000000	86.956936
1996.000000	86.993421
1995.000000	87.004956
1994.000000	86.986950
1993.000000	86.956917
1992.000000	87.029536
1991.000000	87.022339
1990.000000	86.998480
1989.000000	87.017959
1988.000000	87.011353
1987.000000	87.012763
1986.000000	87.084012
1985.000000	87.011492
1984.000000	87.119649
1983.000000	87.111992
1982.000000	87.089530
1981.000000	87.100905
1980.000000	87.130445
1979.000000	87.172760
1978.000000	87.198900
1977.000000	87.143542
1976.000000	87.211163
1975.000000	87.198321
1974.000000	87.268351
1973.000000	87.211605
1972.000000	87.220495
1971.000000	87.244784
1970.000000	87.228833
1969.000000	87.296831
1968.000000	87.371918
1967.000000	87.291312
1966.000000	87.334307
1965.000000	87.369218
1964.000000	87.368191
1963.000000	87.379887
1962.000000	87.419353
1961.000000	87.392354
1960.000000	87.394431
1959.000000	87.400331
1958.000000	87.522651
1957.000000	87.489053
1956.000000	87.552483
1955.000000	87.536917
1954.000000	87.573038
1953.000000	87.536299
1952.000000	87.568900
1951.000000	87.562042
1950.000000	87.625123
1949.000000	87.639536
1948.000000	87.643042
1947.000000	87.645423
1946.000000	87.637007
1945.000000	87.600720
1944.000000	87.697684
1943.000000	87.667398
1942.000000	87.719494
1941.000000	87.735001
1940.000000	87.737774
1939.000000	87.722280
1938.000000	87.787999
1937.000000	87.805513
1936.000000	87.833962
1935.000000	87.812292
1934.000000	87.841773
1933.000000	87.851219
1932.000000	87.876320
1931.000000	87.926950
1930.000000	87.893578
1929.000000	87.885877
1928.000000	87.960793
1927.000000	87.928177
1926.000000	87.920590
1925.000000	87.960990
1924.000000	87.990637
1923.000000	87.964816
1922.000000	88.004212
1921.000000	88.010262
1920.000000	88.049364
1919.000000	88.026711
1918.000000	88.010583
1917.000000	88.009979
1916.000000	88.076758
1915.000000	88.105540
1914.000000	88.064960
1913.000000	88.054624
1912.000000	88.064188
1911.000000	88.078975
1910.000000	88.110776
1909.000000	88.072966
1908.000000	88.114041
1907.000000	88.060902
1906.000000	88.094660
1905.000000	88.086355
1904.000000	88.113900
1903.000000	88.076451
1902.000000	88.034898
1901.000000	88.049437
1900.000000	88.080504
1899.000000	88.100367
1898.000000	88.108314
1897.000000	88.114797
1896.000000	88.133873
1895.000000	88.116625
1894.000000	88.131574
1893.000000	88.173355
1892.000000	88.181526
1891.000000	88.125454
1890.000000	88.139392
1889.000000	88.160617
1888.000000	88.197108
1887.000000	88.236108
1886.000000	88.256793
1885.000000	88.273894
1884.000000	88.289840
1883.000000	88.247395
1882.000000	88.180192
1881.000000	88.190960
1880.000000	88.235828
1879.000000	88.245615
1878.000000	88.257532
1877.000000	88.248997
1876.000000	88.274246
1875.000000	88.243421
1874.000000	88.211302
1873.000000	88.205427
1872.000000	88.252925
1871.000000	88.255203
1870.000000	88.241054
1869.000000	88.274187
1868.000000	88.299071
1867.000000	88.265075
1866.000000	88.265173
1865.000000	88.279877
1864.000000	88.292943
1863.000000	88.353903
1862.000000	88.347688
1861.000000	88.327868
1860.000000	88.376812
1859.000000	88.373763
1858.000000	88.335385
1857.000000	88.364504
1856.000000	88.366758
1855.000000	88.349014
1854.000000	88.371253
1853.000000	88.389592
1852.000000	88.415822
1851.000000	88.443247
1850.000000	88.413691
1849.000000	88.436752
1848.000000	88.436744
1847.000000	88.440371
1846.000000	88.421048
1845.000000	88.416343
1844.000000	88.418845
1843.000000	88.402771
1842.000000	88.400573
1841.000000	88.405821
1840.000000	88.413514
1839.000000	88.404446
1838.000000	88.397189
1837.000000	88.426760
1836.000000	88.456083
1835.000000	88.432741
1834.000000	88.400214
1833.000000	88.393784
1832.000000	88.387344
1831.000000	88.410639
1830.000000	88.425941
1829.000000	88.453890
1828.000000	88.444245
1827.000000	88.428409
1826.000000	88.431464
1825.000000	88.462849
1824.000000	88.438641
1823.000000	88.439334
1822.000000	88.420083
1821.000000	88.401065
1820.000000	88.376935
1819.000000	88.399610
1818.000000	88.404848
1817.000000	88.415180
1816.000000	88.450482
1815.000000	88.475132
1814.000000	88.460292
1813.000000	88.450798
1812.000000	88.433805
1811.000000	88.433061
1810.000000	88.427548
1809.000000	88.446655
1808.000000	88.448362
1807.000000	88.441197
1806.000000	88.413738
1805.000000	88.417220
1804.000000	88.412612
1803.000000	88.425361
1802.000000	88.420763
1801.000000	88.413522
1800.000000	88.405373
1799.000000	88.438249
1798.000000	88.424001
1797.000000	88.408749
1796.000000	88.407959
1795.000000	88.398932
1794.000000	88.402667
1793.000000	88.406171
1792.000000	88.398181
1791.000000	88.434424
1790.000000	88.408284
1789.000000	88.375165
1788.000000	88.390468
1787.000000	88.379216
1786.000000	88.342182
1785.000000	88.341295
1784.000000	88.343451
1783.000000	88.349148
1782.000000	88.340430
1781.000000	88.343521
1780.000000	88.324587
1779.000000	88.321645
1778.000000	88.306515
1777.000000	88.302473
1776.000000	88.292401
1775.000000	88.301907
1774.000000	88.307027
1773.000000	88.305312
1772.000000	88.295658
1771.000000	88.302212
1770.000000	88.274502
1769.000000	88.282093
1768.000000	88.241574
1767.000000	88.249563
1766.000000	88.262703
1765.000000	88.241891
1764.000000	88.219316
1763.000000	88.247087
1762.000000	88.234060
1761.000000	88.236561
1760.000000	88.209545
1759.000000	88.217851
1758.000000	88.196224
1757.000000	88.200404
1756.000000	88.192604
1755.000000	88.171284
1754.000000	88.130472
1753.000000	88.126943
1752.000000	88.101649
1751.000000	88.079772
1750.000000	88.100568
1749.000000	88.113425
1748.000000	88.079815
1747.000000	88.084500
1746.000000	88.076829
1745.000000	88.099407
1744.000000	88.091999
1743.000000	88.050409
1742.000000	88.046474
1741.000000	88.071088
1740.000000	88.028743
1739.000000	88.019096
1738.000000	88.013694
1737.000000	87.990886
1736.000000	87.980432
1735.000000	87.948379
1734.000000	87.953846
1733.000000	87.946006
1732.000000	87.914542
1731.000000	87.912241
1730.000000	87.892145
1729.000000	87.920951
1728.000000	87.855686
1727.000000	87.837983
1726.000000	87.850202
1725.000000	87.856913
1724.000000	87.796166
1723.000000	87.820713
1722.000000	87.786707
1721.000000	87.806142
1720.000000	87.778817
1719.000000	87.772144
1718.000000	87.737389
1717.000000	87.718299
1716.000000	87.641005
1715.000000	87.680423
1714.000000	87.664233
1713.000000	87.663318
1712.000000	87.631530
1711.000000	87.640744
1710.000000	87.584699
1709.000000	87.589696
1708.000000	87.544453
1707.000000	87.561970
1706.000000	87.547490
1705.000000	87.485768
1704.000000	87.462985
1703.000000	87.420834
1702.000000	87.414075
1701.000000	87.408918
1700.000000	87.332480
1699.000000	87.321514
1698.000000	87.281110
1697.000000	87.266466
1696.000000	87.213717
1695.000000	87.229253
1694.000000	87.164883
1693.000000	87.185154
1692.000000	87.147895
1691.000000	87.122907
1690.000000	87.064799
1689.000000	87.071964
1688.000000	87.007161
1687.000000	87.036850
1686.000000	87.005254
1685.000000	86.996633
1684.000000	86.963194
1683.000000	86.958347
1682.000000	86.933623
1681.000000	86.928143
1680.000000	86.892374
1679.000000	86.888783
1678.000000	86.843556
1677.000000	86.856279
1676.000000	86.811864
1675.000000	86.817493
1674.000000	86.799246
1673.000000	86.827508
1672.000000	86.816136
1671.000000	86.805937
1670.000000	86.783000
1669.000000	86.759616
1668.000000	86.763764
1667.000000	86.783420
1666.000000	86.767285
1665.000000	86.734434
1664.000000	86.754975
1663.000000	86.753713
1662.000000	86.720652
1661.000000	86.725247
1660.000000	86.711801
1659.000000	86.711377
1658.000000	86.698771
1657.000000	86.668422
1656.000000	86.647381
1655.000000	86.653137
1654.000000	86.617271
1653.000000	86.607023
1652.000000	86.579024
1651.000000	86.579913
1650.000000	86.562916
1649.000000	86.560424
1648.000000	86.531598
1647.000000	86.534083
1646.000000	86.528250
1645.000000	86.510591
1644.000000	86.477188
1643.000000	86.478253
1642.000000	86.441077
1641.000000	86.443011
1640.000000	86.425505
1639.000000	86.415055
1638.000000	86.403291
1637.000000	86.395818
1636.000000	86.369618
1635.000000	86.375467
1634.000000	86.335047
1633.000000	86.326047
1632.000000	86.330820
1631.000000	86.324649
1630.000000	86.306958
1629.000000	86.291480
1628.000000	86.276285
1627.000000	86.272237
1626.000000	86.245625
1625.000000	86.237225
1624.000000	86.248702
1623.000000	86.243452
1622.000000	86.225358
1621.000000	86.211880
1620.000000	86.205010
1619.000000	86.193084
1618.000000	86.168807
1617.000000	86.178540
1616.000000	86.156609
1615.000000	86.132930
1614.000000	86.125620
1613.000000	86.117504
1612.000000	86.093900
1611.000000	86.101528
1610.000000	86.093432
1609.000000	86.095519
1608.000000	86.079420
1607.000000	86.072895
1606.000000	86.066859
1605.000000	86.059244
1604.000000	86.037602
1603.000000	86.026599
1602.000000	86.027507
1601.000000	86.015182
1600.000000	86.010147
1599.000000	86.004818
1598.000000	85.995363
1597.000000	85.997897
1596.000000	85.987485
1595.000000	85.974784
1594.000000	85.961266
1593.000000	85.968733
1592.000000	85.962367
1591.000000	85.943498
1590.000000	85.925706
1589.000000	85.916515
1588.000000	85.928118
1587.000000	85.935589
1586.000000	85.935541
1585.000000	85.931168
1584.000000	85.916442
1583.000000	85.919127
1582.000000	85.921256
1581.000000	85.921957
1580.000000	85.917533
1579.000000	85.889036
1578.000000	85.871890
1577.000000	85.883757
1576.000000	85.883176
1575.000000	85.881368
1574.000000	85.878459
1573.000000	85.884527
1572.000000	85.883248
1571.000000	85.875047
1570.000000	85.879199
1569.000000	85.880314
1568.000000	85.880651
1567.000000	85.891808
1566.000000	85.897247
1565.000000	85.893543
1564.000000	85.890525
1563.000000	85.889857
1562.000000	85.897739
1561.000000	85.898017
1560.000000	85.891563
1559.000000	85.891070
1558.000000	85.902834
1557.000000	85.902215
1556.000000	85.904233
1555.000000	85.892226
1554.000000	85.804985
1553.000000	85.685531
1552.000000	85.521233
1551.000000	85.450180
1550.000000	85.470460
1549.000000	85.474770
1548.000000	85.486132
1547.000000	85.492604
1546.000000	85.494003
1545.000000	85.487172
1544.000000	85.500634
1543.000000	85.513900
1542.000000	85.505645
1541.000000	85.505610
1540.000000	85.536511
1539.000000	85.419597
1538.000000	85.350886
1537.000000	85.378363
1536.000000	85.477712
1535.000000	85.599653
1534.000000	85.643735
1533.000000	85.654812
1532.000000	85.678745
1531.000000	85.686580
1530.000000	85.719852
1529.000000	85.730089
1528.000000	85.579952
1527.000000	85.510731
1526.000000	85.534988
1525.000000	85.552555
1524.000000	85.692823
1523.000000	85.757585
1522.000000	85.759825
1521.000000	85.768369
1520.000000	85.627458
1519.000000	85.579381
1518.000000	85.757227
1517.000000	85.849312
1516.000000	85.871996
1515.000000	85.872471
1514.000000	85.736939
1513.000000	85.855792
1512.000000	85.943158
1511.000000	85.939914
1510.000000	85.965814
1509.000000	85.806880
1508.000000	85.935886
1507.000000	86.022113
1506.000000	86.040775
1505.000000	85.868830
1504.000000	86.019322
1503.000000	86.100301
1502.000000	86.114488
1501.000000	86.124794
1500.000000	86.141188
1499.000000	86.152224
1498.000000	86.177240
1497.000000	86.207490
1496.000000	86.237521
1495.000000	86.246215
1494.000000	86.110327
1493.000000	86.078167
1492.000000	86.276497
1491.000000	86.350478
1490.000000	86.370117
1489.000000	86.390192
1488.000000	86.411534
1487.000000	86.441355
1486.000000	86.473696
1485.000000	86.467339
1484.000000	86.318356
1483.000000	86.299491
1482.000000	86.336462
1481.000000	86.348835
1480.000000	86.574902
1479.000000	86.598731
1478.000000	86.623565
1477.000000	86.608904
1476.000000	86.663845
1475.000000	86.661869
1474.000000	86.681182
1473.000000	86.694990
1472.000000	86.694428
1471.000000	86.727288
1470.000000	86.751187
1469.000000	86.783234
1468.000000	86.826285
1467.000000	86.665544
1466.000000	86.879070
1465.000000	86.899144
1464.000000	86.919371
1463.000000	86.927774
1462.000000	86.984106
1461.000000	87.006670
1460.000000	87.036260
1459.000000	87.054693
1458.000000	87.081339
1457.000000	87.100926
1456.000000	87.130349
1455.000000	87.151769
1454.000000	86.964579
1453.000000	87.168048
1452.000000	87.237466
1451.000000	87.252970
1450.000000	87.299058
1449.000000	87.307036
1448.000000	87.355458
1447.000000	87.340687
1446.000000	87.377509
1445.000000	87.409908
1444.000000	87.441281
1443.000000	87.462444
1442.000000	87.481167
1441.000000	87.263539
1440.000000	87.328309
1439.000000	87.337501
1438.000000	87.560653
1437.000000	87.569289
1436.000000	87.625288
1435.000000	87.606999
1434.000000	87.658113
1433.000000	87.678140
1432.000000	87.703849
1431.000000	87.723218
1430.000000	87.788613
1429.000000	87.784200
1428.000000	87.793565
1427.000000	87.804631
1426.000000	87.842316
1425.000000	87.838009
1424.000000	87.863460
1423.000000	87.907811
1422.000000	87.912090
1421.000000	87.823878
1420.000000	87.946301
1419.000000	87.767075
1418.000000	87.768094
1417.000000	87.970256
1416.000000	87.982272
1415.000000	87.963831
1414.000000	87.795977
1413.000000	88.017034
1412.000000	87.871482
1411.000000	87.885940
1410.000000	88.059705
1409.000000	88.075410
1408.000000	87.876020
1407.000000	88.052848
1406.000000	88.075074
1405.000000	88.073200
1404.000000	87.892468
1403.000000	87.882963
1402.000000	87.877192
1401.000000	87.902070
1400.000000	88.120237
1399.000000	88.136009
1398.000000	88.156048
1397.000000	88.155353
1396.000000	88.154829
1395.000000	88.134435
1394.000000	88.161581
1393.000000	88.148411
1392.000000	88.152334
1391.000000	88.133406
1390.000000	88.127194
1389.000000	88.159669
1388.000000	88.155314
1387.000000	88.147992
1386.000000	88.147672
1385.000000	88.143828
1384.000000	88.138844
1383.000000	88.174263
1382.000000	88.208401
1381.000000	88.190837
1380.000000	88.145280
1379.000000	88.029270
1378.000000	87.925628
1377.000000	88.052508
1376.000000	88.217270
1375.000000	88.190301
1374.000000	88.153121
1373.000000	87.950740
1372.000000	87.941906
1371.000000	87.936958
1370.000000	87.916608
1369.000000	87.902342
1368.000000	87.883820
1367.000000	87.857494
1366.000000	87.859022
1365.000000	87.828780
1364.000000	87.830664
1363.000000	87.841931
1362.000000	88.001201
1361.000000	87.935491
1360.000000	87.794660
1359.000000	87.890069
1358.000000	87.714009
1357.000000	87.796794
1356.000000	87.960767
1355.000000	87.934500
1354.000000	87.927018
1353.000000	87.921429
1352.000000	87.913105
1351.000000	87.890243
1350.000000	87.877379
1349.000000	87.898715
1348.000000	87.917489
1347.000000	87.919939
1346.000000	87.939392
1345.000000	87.951972
1344.000000	87.898304
1343.000000	87.845636
1342.000000	87.983795
1341.000000	88.012840
1340.000000	87.922667
1339.000000	87.916406
1338.000000	87.895069
1337.000000	87.891067
1336.000000	87.888501
1335.000000	87.918333
1334.000000	87.953486
1333.000000	87.862425
1332.000000	87.867468
1331.000000	87.827980
1330.000000	87.799603
1329.000000	87.803914
1328.000000	87.796823
1327.000000	87.768881
1326.000000	87.743671
1325.000000	87.724545
1324.000000	87.715168
1323.000000	87.701602
1322.000000	87.670322
1321.000000	87.632824
1320.000000	87.647511
1319.000000	87.654345
1318.000000	87.596289
1317.000000	87.576209
1316.000000	87.550104
1315.000000	87.531916
1314.000000	87.517112
1313.000000	87.530721
1312.000000	87.528439
1311.000000	87.446003
1310.000000	87.422471
1309.000000	87.404461
1308.000000	87.385299
1307.000000	87.363539
1306.000000	87.342428
1305.000000	87.317611
1304.000000	87.293150
1303.000000	87.272521
1302.000000	87.250411
1301.000000	87.224380
1300.000000	87.198667
1299.000000	87.176932
1298.000000	87.160623
1297.000000	87.137437
1296.000000	87.114689
1295.000000	87.157502
1294.000000	87.161141
1293.000000	87.087730
1292.000000	87.084467
1291.000000	87.057474
1290.000000	87.010272
1289.000000	87.054825
1288.000000	87.041854
1287.000000	86.955069
1286.000000	86.942263
1285.000000	86.938592
1284.000000	86.933264
1283.000000	86.915165
1282.000000	86.898745
1281.000000	86.956967
1280.000000	86.989984
1279.000000	86.903856
1278.000000	86.844721
1277.000000	86.844835
1276.000000	86.824128
1275.000000	86.811026
1274.000000	86.789575
1273.000000	86.777155
1272.000000	86.752843
1271.000000	86.731676
1270.000000	86.765830
1269.000000	86.736939
1268.000000	86.674716
1267.000000	86.656303
1266.000000	86.650095
1265.000000	86.620273
1264.000000	86.604307
1263.000000	86.594576
1262.000000	86.573347
1261.000000	86.573109
1260.000000	86.565969
1259.000000	86.563416
1258.000000	86.555413
1257.000000	86.557264
1256.000000	86.540738
1255.000000	86.521953
1254.000000	86.518525
1253.000000	86.509260
1252.000000	86.506550
1251.000000	86.514446
1250.000000	86.557006
1249.000000	86.512864
1248.000000	86.489361
1247.000000	86.467986
1246.000000	86.464520
1245.000000	86.475241
1244.000000	86.543505
1243.000000	86.507903
1242.000000	86.474400
1241.000000	86.481522
1240.000000	86.471375
1239.000000	86.471531
1238.000000	86.469515
1237.000000	86.478492
1236.000000	86.471905
1235.000000	86.478605
1234.000000	86.460731
1233.000000	86.475889
1232.000000	86.472514
1231.000000	86.470591
1230.000000	86.470869
1229.000000	86.480447
1228.000000	86.470410
1227.000000	86.481861
1226.000000	86.487731
1225.000000	86.492738
1224.000000	86.498076
1223.000000	86.534432
1222.000000	86.517298
1221.000000	86.534581
1220.000000	86.529135
1219.000000	86.566871
1218.000000	86.560307
1217.000000	86.563892
1216.000000	86.571456
1215.000000	86.600817
1214.000000	86.617853
1213.000000	86.649719
1212.000000	86.659209
1211.000000	86.735370
1210.000000	86.702498
1209.000000	86.624762
1208.000000	86.622800
1207.000000	86.757134
1206.000000	86.790889
1205.000000	86.820913
1204.000000	86.821267
1203.000000	86.923947
1202.000000	86.883900
1201.000000	86.879589
1200.000000	86.883711
1199.000000	86.910239
1198.000000	86.922033
1197.000000	86.931252
1196.000000	86.992339
1195.000000	86.997239
1194.000000	87.012642
1193.000000	87.043490
1192.000000	87.052155
1191.000000	87.090578
1190.000000	87.131651
1189.000000	87.143465
1188.000000	87.152687
1187.000000	87.186931
1186.000000	87.206055
1185.000000	87.244448
1184.000000	87.262396
1183.000000	87.323436
1182.000000	87.346380
1181.000000	87.374821
1180.000000	87.388704
1179.000000	87.426013
1178.000000	87.446628
1177.000000	87.483531
1176.000000	87.521364
1175.000000	87.541867
1174.000000	87.586162
1173.000000	87.604987
1172.000000	87.606066
1171.000000	87.642974
1170.000000	87.647902
1169.000000	87.699430
1168.000000	87.736746
1167.000000	87.780969
1166.000000	87.784842
1165.000000	87.827221
1164.000000	87.830447
